SpectraSuite Datei
++++++++++++++++++++++++++++++++++++
Datum: Wed Dec 07 13:32:28 CET 2022
Benutzer: fpphysik
Dark-Spektrum vorhanden: Ja
Referenz-Spektrum vorhanden: Ja
Zahl der probierten Teilspektren: 1
Spektrometer: USB2G45318
Integrationszeit (usec): 500000 (USB2G45318)
Spektren Durchschnitt berechnet: 1 (USB2G45318)
Boxcar Glättung: 0 (USB2G45318)
Dunkelstromkorrektur: Nein (USB2G45318)
Puls/Lampe aktiviert: Nein (USB2G45318)
Correct for Detector Non-linearity: Nein (USB2G45318)
Streulichtkorrektur: Nein (USB2G45318)
Anzahl Pixel in verarbeitetem Spektrum: 651
>>>>>Begin Processed Spectral Data<<<<<
350,00	9,27
351,00	8,70
352,00	21,18
353,00	-2,53
354,00	3,31
355,00	-0,99
356,00	8,76
357,00	5,29
358,00	-0,34
359,00	11,80
360,00	2,51
361,00	1,39
362,00	-6,06
363,00	0,50
364,00	5,43
365,00	-2,43
366,00	-0,34
367,00	7,33
368,00	3,98
369,00	-1,87
370,00	1,01
371,00	7,06
372,00	0,13
373,00	7,28
374,00	2,35
375,00	3,69
376,00	0,03
377,00	0,48
378,00	-2,21
379,00	-2,90
380,00	0,23
381,00	3,52
382,00	16,34
383,00	-0,43
384,00	3,49
385,00	10,36
386,00	12,05
387,00	23,14
388,00	317,75
389,00	1067,34
390,00	18,28
391,00	10,70
392,00	3,34
393,00	7,10
394,00	-0,17
395,00	3,11
396,00	30,17
397,00	20,35
398,00	3,03
399,00	-8,19
400,00	-4,92
401,00	3,82
402,00	66,18
403,00	72,56
404,00	4,16
405,00	-1,67
406,00	3,74
407,00	5,96
408,00	-0,10
409,00	-1,36
410,00	-0,07
411,00	-7,55
412,00	36,81
413,00	3,92
414,00	9,66
415,00	11,02
416,00	-6,74
417,00	5,91
418,00	2,37
419,00	2,17
420,00	6,64
421,00	11,48
422,00	4,58
423,00	3,67
424,00	1,43
425,00	-0,95
426,00	2,79
427,00	8,44
428,00	11,17
429,00	5,03
430,00	5,02
431,00	9,04
432,00	3,05
433,00	1,13
434,00	8,13
435,00	-8,14
436,00	13,04
437,00	0,21
438,00	16,16
439,00	82,12
440,00	9,09
441,00	3,76
442,00	28,20
443,00	28,37
444,00	38,09
445,00	6,99
446,00	-0,27
447,00	1293,96
448,00	284,82
449,00	19,04
450,00	3,65
451,00	6,64
452,00	6,01
453,00	10,14
454,00	41,14
455,00	9,55
456,00	0,98
457,00	8,26
458,00	18,87
459,00	8,20
460,00	16,47
461,00	3,15
462,00	9,03
463,00	13,46
464,00	8,90
465,00	5,51
466,00	11,37
467,00	4,09
468,00	12,48
469,00	10,04
470,00	51,00
471,00	532,76
472,00	356,65
473,00	18,70
474,00	7,43
475,00	43,21
476,00	24,42
477,00	3,42
478,00	1,44
479,00	23,92
480,00	9,96
481,00	34,71
482,00	32,93
483,00	21,67
484,00	49,96
485,00	15,40
486,00	34,28
487,00	32,30
488,00	24,56
489,00	28,94
490,00	12,08
491,00	2,85
492,00	525,99
493,00	292,89
494,00	39,12
495,00	29,74
496,00	29,48
497,00	18,16
498,00	19,75
499,00	13,05
500,00	24,57
501,00	849,01
502,00	2437,32
503,00	348,11
504,00	425,69
505,00	403,08
506,00	66,37
507,00	41,78
508,00	204,86
509,00	63,10
510,00	13,57
511,00	35,60
512,00	156,85
513,00	46,54
514,00	40,62
515,00	144,62
516,00	78,55
517,00	14,43
518,00	10,70
519,00	153,84
520,00	119,92
521,00	147,14
522,00	59,05
523,00	34,41
524,00	13,97
525,00	10,84
526,00	1,51
527,00	1,73
528,00	17,90
529,00	7,97
530,00	35,75
531,00	22,55
532,00	21,80
533,00	388,11
534,00	590,88
535,00	266,20
536,00	89,35
537,00	54,59
538,00	33,64
539,00	8,62
540,00	48,49
541,00	22,96
542,00	27,96
543,00	126,47
544,00	107,08
545,00	26,23
546,00	3,46
547,00	4,47
548,00	2,65
549,00	7,13
550,00	9,15
551,00	1,06
552,00	4,97
553,00	13,57
554,00	15,12
555,00	9,51
556,00	46,54
557,00	24,71
558,00	11,00
559,00	16,74
560,00	6,15
561,00	11,41
562,00	1,08
563,00	3,93
564,00	7,76
565,00	46,92
566,00	140,18
567,00	47,13
568,00	16,30
569,00	139,19
570,00	59,68
571,00	20,06
572,00	70,64
573,00	33,09
574,00	38,99
575,00	319,96
576,00	844,56
577,00	908,76
578,00	254,07
579,00	45,49
580,00	174,00
581,00	186,93
582,00	819,06
583,00	312,40
584,00	109,62
585,00	3073,16
586,00	1577,94
587,00	3755,61
588,00	3929,38
589,00	3262,34
590,00	836,60
591,00	517,71
592,00	276,66
593,00	107,63
594,00	1631,24
595,00	1699,54
596,00	693,18
597,00	742,07
598,00	815,88
599,00	563,22
600,00	187,05
601,00	63,68
602,00	14,65
603,00	812,58
604,00	330,32
605,00	206,14
606,00	42,31
607,00	1475,06
608,00	1169,18
609,00	2131,49
610,00	3117,24
611,00	1134,15
612,00	512,37
613,00	213,85
614,00	3951,41
615,00	3374,87
616,00	2351,69
617,00	1006,81
618,00	724,36
619,00	227,53
620,00	130,93
621,00	372,81
622,00	807,93
623,00	273,88
624,00	125,37
625,00	104,03
626,00	1200,09
627,00	2339,95
628,00	764,71
629,00	450,13
630,00	736,32
631,00	588,18
632,00	496,20
633,00	3506,68
634,00	1936,18
635,00	939,17
636,00	243,50
637,00	104,82
638,00	2964,25
639,00	1355,90
640,00	3877,93
641,00	3913,79
642,00	3855,23
643,00	467,55
644,00	142,91
645,00	92,51
646,00	54,21
647,00	35,63
648,00	49,99
649,00	57,45
650,00	2335,23
651,00	3837,07
652,00	1295,97
653,00	1396,77
654,00	422,71
655,00	218,64
656,00	67,47
657,00	34,89
658,00	23,91
659,00	356,73
660,00	2318,91
661,00	656,07
662,00	327,92
663,00	58,74
664,00	35,01
665,00	51,54
666,00	64,91
667,00	1505,44
668,00	3902,54
669,00	2407,57
670,00	1056,86
671,00	1053,72
672,00	1561,42
673,00	528,34
674,00	263,39
675,00	35,43
676,00	30,66
677,00	9,97
678,00	9,24
679,00	7,55
680,00	10,32
681,00	14,74
682,00	2,91
683,00	3,37
684,00	4,44
685,00	5,19
686,00	13,08
687,00	15,03
688,00	8,54
689,00	12,09
690,00	7,97
691,00	14,17
692,00	263,08
693,00	2260,62
694,00	618,53
695,00	332,17
696,00	88,72
697,00	25,56
698,00	-7,64
699,00	24,58
700,00	22,29
701,00	35,54
702,00	54,22
703,00	3833,37
704,00	1310,10
705,00	926,49
706,00	3315,30
707,00	1943,21
708,00	873,35
709,00	438,65
710,00	53,66
711,00	24,21
712,00	17,41
713,00	6,70
714,00	10,33
715,00	10,59
716,00	10,79
717,00	259,97
718,00	111,74
719,00	77,28
720,00	28,25
721,00	8,07
722,00	10,68
723,00	25,33
724,00	1223,51
725,00	659,75
726,00	375,78
727,00	183,74
728,00	1415,97
729,00	401,32
730,00	294,12
731,00	144,86
732,00	29,78
733,00	13,94
734,00	1,61
735,00	1,60
736,00	3,25
737,00	-6,05
738,00	4,62
739,00	-5,90
740,00	3,92
741,00	23,96
742,00	0,06
743,00	82,54
744,00	285,20
745,00	76,41
746,00	53,12
747,00	51,38
748,00	98,37
749,00	284,64
750,00	84,62
751,00	50,66
752,00	29,61
753,00	192,99
754,00	225,00
755,00	99,03
756,00	57,16
757,00	24,44
758,00	6,59
759,00	2,34
760,00	9,20
761,00	-6,03
762,00	2,82
763,00	5,99
764,00	-0,18
765,00	4,86
766,00	0,94
767,00	3,08
768,00	-1,40
769,00	4,06
770,00	-2,52
771,00	0,23
772,00	2,83
773,00	4,84
774,00	-2,90
775,00	3,04
776,00	-0,33
777,00	-3,54
778,00	1,39
779,00	-0,82
780,00	3,41
781,00	-3,79
782,00	3,84
783,00	-3,31
784,00	-2,00
785,00	-1,55
786,00	2,12
787,00	1,38
788,00	-2,53
789,00	4,02
790,00	-0,77
791,00	4,27
792,00	-1,30
793,00	2,99
794,00	49,82
795,00	15,58
796,00	9,71
797,00	11,53
798,00	5,95
799,00	-1,23
800,00	2,84
801,00	2,88
802,00	-6,72
803,00	9,15
804,00	2,23
805,00	-1,70
806,00	4,63
807,00	1,89
808,00	3,63
809,00	6,42
810,00	6,02
811,00	5,95
812,00	16,24
813,00	60,92
814,00	33,51
815,00	15,89
816,00	15,41
817,00	4,34
818,00	2,00
819,00	2,13
820,00	5,04
821,00	9,98
822,00	0,48
823,00	6,77
824,00	-0,73
825,00	13,08
826,00	34,76
827,00	25,77
828,00	6,32
829,00	21,62
830,00	142,33
831,00	31,52
832,00	29,95
833,00	16,99
834,00	9,24
835,00	9,41
836,00	18,74
837,00	299,00
838,00	360,14
839,00	129,71
840,00	101,85
841,00	97,12
842,00	84,42
843,00	23,59
844,00	11,43
845,00	17,50
846,00	16,53
847,00	0,07
848,00	6,77
849,00	214,46
850,00	104,69
851,00	54,97
852,00	41,27
853,00	33,48
854,00	18,24
855,00	4,05
856,00	-3,56
857,00	16,24
858,00	17,30
859,00	109,32
860,00	33,37
861,00	22,70
862,00	16,86
863,00	92,44
864,00	40,01
865,00	195,30
866,00	86,97
867,00	65,93
868,00	85,85
869,00	38,20
870,00	27,50
871,00	17,73
872,00	12,95
873,00	-2,88
874,00	2,79
875,00	3,70
876,00	10,73
877,00	37,17
878,00	186,07
879,00	72,16
880,00	45,53
881,00	42,50
882,00	16,60
883,00	12,79
884,00	7,22
885,00	38,14
886,00	31,41
887,00	28,77
888,00	19,72
889,00	17,70
890,00	4,66
891,00	-1,00
892,00	8,99
893,00	-1,67
894,00	6,40
895,00	4,31
896,00	-0,81
897,00	-0,29
898,00	-0,60
899,00	5,66
900,00	1,11
901,00	8,59
902,00	7,63
903,00	-3,93
904,00	0,95
905,00	4,00
906,00	-2,64
907,00	-2,83
908,00	-0,97
909,00	5,04
910,00	-3,40
911,00	-1,71
912,00	4,67
913,00	-12,01
914,00	-2,27
915,00	13,63
916,00	5,10
917,00	-3,99
918,00	6,15
919,00	-1,17
920,00	4,99
921,00	5,15
922,00	9,82
923,00	12,58
924,00	3,81
925,00	12,73
926,00	7,51
927,00	5,26
928,00	8,09
929,00	7,75
930,00	5,09
931,00	0,99
932,00	-2,62
933,00	2,56
934,00	4,68
935,00	-0,21
936,00	3,78
937,00	2,90
938,00	-0,64
939,00	-0,89
940,00	2,59
941,00	-3,53
942,00	4,37
943,00	2,44
944,00	-1,12
945,00	7,39
946,00	0,22
947,00	2,16
948,00	1,12
949,00	-2,65
950,00	6,17
951,00	2,96
952,00	-5,55
953,00	3,50
954,00	-3,72
955,00	-2,91
956,00	3,00
957,00	7,41
958,00	-0,54
959,00	-0,88
960,00	-0,94
961,00	-2,02
962,00	-3,45
963,00	-4,06
964,00	-9,58
965,00	9,78
966,00	-3,86
967,00	-2,63
968,00	1,98
969,00	3,85
970,00	9,21
971,00	6,24
972,00	-9,69
973,00	1,54
974,00	4,21
975,00	-3,92
976,00	-1,01
977,00	-0,58
978,00	4,24
979,00	-4,96
980,00	0,50
981,00	0,22
982,00	6,82
983,00	-2,55
984,00	0,40
985,00	2,90
986,00	1,57
987,00	2,31
988,00	3,57
989,00	-0,97
990,00	9,13
991,00	-2,99
992,00	-2,27
993,00	-5,85
994,00	-9,28
995,00	-1,30
996,00	5,06
997,00	-4,12
998,00	0,29
999,00	0,98
1000,00	-4,15
>>>>>End Processed Spectral Data<<<<<
