SpectraSuite Datei
++++++++++++++++++++++++++++++++++++
Datum: Wed Dec 07 15:19:12 CET 2022
Benutzer: fpphysik
Dark-Spektrum vorhanden: Ja
Referenz-Spektrum vorhanden: Ja
Zahl der probierten Teilspektren: 1
Spektrometer: USB2G45318
Integrationszeit (usec): 200000 (USB2G45318)
Spektren Durchschnitt berechnet: 5 (USB2G45318)
Boxcar Glättung: 0 (USB2G45318)
Dunkelstromkorrektur: Nein (USB2G45318)
Puls/Lampe aktiviert: Nein (USB2G45318)
Correct for Detector Non-linearity: Nein (USB2G45318)
Streulichtkorrektur: Nein (USB2G45318)
Anzahl Pixel in verarbeitetem Spektrum: 651
>>>>>Begin Processed Spectral Data<<<<<
350,00	1,55
351,00	-1,89
352,00	-0,59
353,00	-2,92
354,00	-0,06
355,00	-3,88
356,00	-1,34
357,00	2,60
358,00	-2,03
359,00	0,12
360,00	-0,78
361,00	-0,78
362,00	-1,42
363,00	0,26
364,00	0,15
365,00	4,02
366,00	-2,28
367,00	1,47
368,00	1,35
369,00	-0,86
370,00	-2,81
371,00	2,03
372,00	1,00
373,00	0,26
374,00	-1,02
375,00	0,12
376,00	1,65
377,00	-1,93
378,00	-2,38
379,00	-2,12
380,00	-1,64
381,00	0,47
382,00	-0,30
383,00	1,06
384,00	-1,50
385,00	-1,09
386,00	-1,09
387,00	-0,25
388,00	1,69
389,00	1,67
390,00	-2,95
391,00	1,29
392,00	1,78
393,00	0,33
394,00	0,42
395,00	-2,94
396,00	1,65
397,00	1,52
398,00	3,41
399,00	1,58
400,00	-0,27
401,00	1,00
402,00	-1,57
403,00	-0,64
404,00	1,27
405,00	0,58
406,00	-1,60
407,00	-1,40
408,00	-0,11
409,00	-0,03
410,00	-0,04
411,00	-2,30
412,00	2,30
413,00	-0,44
414,00	5,88
415,00	-0,75
416,00	-1,84
417,00	0,48
418,00	-0,94
419,00	-0,67
420,00	2,86
421,00	0,98
422,00	-0,31
423,00	3,30
424,00	0,01
425,00	-3,14
426,00	-2,73
427,00	4,16
428,00	1,34
429,00	-0,29
430,00	0,62
431,00	1,02
432,00	-2,36
433,00	-0,62
434,00	-1,14
435,00	-0,80
436,00	4,28
437,00	0,89
438,00	-1,16
439,00	0,94
440,00	-0,08
441,00	-1,49
442,00	0,66
443,00	-1,58
444,00	3,25
445,00	-0,13
446,00	1,71
447,00	-1,08
448,00	-3,12
449,00	-2,74
450,00	1,03
451,00	-0,02
452,00	1,36
453,00	0,76
454,00	2,57
455,00	0,87
456,00	1,82
457,00	1,06
458,00	-0,56
459,00	-0,20
460,00	-1,68
461,00	3,25
462,00	-0,20
463,00	0,44
464,00	1,62
465,00	4,75
466,00	-2,56
467,00	2,80
468,00	-0,05
469,00	3,91
470,00	0,55
471,00	-6,49
472,00	2,71
473,00	3,47
474,00	-0,52
475,00	-0,19
476,00	0,23
477,00	0,76
478,00	3,06
479,00	-0,04
480,00	-0,35
481,00	-0,95
482,00	1,65
483,00	-0,24
484,00	-4,09
485,00	1,92
486,00	3,23
487,00	1,75
488,00	0,82
489,00	1,86
490,00	-0,80
491,00	1,73
492,00	0,20
493,00	-7,63
494,00	-0,20
495,00	-0,66
496,00	0,56
497,00	1,05
498,00	3,37
499,00	-3,38
500,00	0,55
501,00	1,31
502,00	5,47
503,00	-4,13
504,00	-3,27
505,00	-1,86
506,00	-1,11
507,00	1,10
508,00	4,71
509,00	1,83
510,00	-0,63
511,00	0,95
512,00	-2,04
513,00	-0,68
514,00	-0,31
515,00	-3,43
516,00	2,45
517,00	1,15
518,00	-1,17
519,00	1,36
520,00	-3,97
521,00	-3,05
522,00	0,03
523,00	-2,48
524,00	2,00
525,00	0,35
526,00	2,05
527,00	0,27
528,00	4,46
529,00	1,19
530,00	1,00
531,00	1,68
532,00	4,47
533,00	-2,51
534,00	-9,47
535,00	-2,30
536,00	-4,77
537,00	-2,63
538,00	0,28
539,00	-0,03
540,00	3,06
541,00	-0,11
542,00	-2,36
543,00	-8,59
544,00	-5,66
545,00	-1,69
546,00	-2,16
547,00	0,70
548,00	-1,16
549,00	-0,23
550,00	-0,59
551,00	-1,26
552,00	-2,35
553,00	2,30
554,00	2,76
555,00	0,77
556,00	1,56
557,00	-2,63
558,00	1,62
559,00	-1,76
560,00	0,94
561,00	0,26
562,00	-1,88
563,00	-2,60
564,00	1,12
565,00	0,00
566,00	-3,10
567,00	-2,22
568,00	3,15
569,00	4,80
570,00	-0,54
571,00	2,99
572,00	-1,34
573,00	-1,29
574,00	3,83
575,00	-1,08
576,00	-8,07
577,00	-6,20
578,00	-2,09
579,00	0,21
580,00	-0,39
581,00	3,00
582,00	-13,89
583,00	-1,65
584,00	0,32
585,00	-10,65
586,00	-15,94
587,00	-1,10
588,00	-6,33
589,00	-16,26
590,00	-5,52
591,00	-5,66
592,00	-2,95
593,00	0,24
594,00	103,54
595,00	130,74
596,00	37,68
597,00	-2,08
598,00	1,92
599,00	2,04
600,00	-2,27
601,00	-3,28
602,00	-2,45
603,00	-11,19
604,00	-5,46
605,00	1,40
606,00	-2,42
607,00	41,11
608,00	29,95
609,00	98,32
610,00	191,50
611,00	52,14
612,00	-15,25
613,00	-5,57
614,00	-36,15
615,00	7,79
616,00	-29,13
617,00	-6,56
618,00	-8,10
619,00	-4,71
620,00	-2,02
621,00	-3,85
622,00	2,39
623,00	-4,53
624,00	-5,26
625,00	1,35
626,00	-4,94
627,00	10,88
628,00	1,68
629,00	-15,54
630,00	-11,76
631,00	-4,74
632,00	-16,48
633,00	-102,89
634,00	-42,29
635,00	-23,65
636,00	-2,74
637,00	-1,54
638,00	-6,22
639,00	-2,03
640,00	7,91
641,00	-1,29
642,00	-19,81
643,00	-9,62
644,00	-0,22
645,00	-3,06
646,00	-1,36
647,00	-1,67
648,00	-1,77
649,00	0,14
650,00	-20,51
651,00	-14,94
652,00	-3,93
653,00	-2,85
654,00	-1,59
655,00	4,89
656,00	-0,72
657,00	1,92
658,00	-1,11
659,00	2,43
660,00	-25,21
661,00	-4,64
662,00	-0,02
663,00	1,67
664,00	0,32
665,00	0,80
666,00	2,29
667,00	37,85
668,00	184,62
669,00	69,82
670,00	33,33
671,00	9,35
672,00	10,84
673,00	-1,41
674,00	-3,15
675,00	1,72
676,00	-2,53
677,00	-0,24
678,00	0,20
679,00	-1,16
680,00	1,57
681,00	4,11
682,00	1,50
683,00	-1,73
684,00	-0,60
685,00	7,07
686,00	0,64
687,00	1,11
688,00	-0,30
689,00	-2,32
690,00	1,68
691,00	0,90
692,00	-1,71
693,00	-9,96
694,00	-9,36
695,00	-0,34
696,00	-0,59
697,00	-1,69
698,00	-15,15
699,00	-1,19
700,00	1,62
701,00	0,73
702,00	-3,62
703,00	-12,62
704,00	-1,75
705,00	-7,24
706,00	-16,32
707,00	-0,05
708,00	-1,99
709,00	3,35
710,00	-4,41
711,00	2,43
712,00	-3,30
713,00	0,34
714,00	1,77
715,00	-1,95
716,00	-1,06
717,00	-3,17
718,00	1,59
719,00	-0,26
720,00	1,67
721,00	0,92
722,00	0,78
723,00	-1,79
724,00	-4,86
725,00	0,95
726,00	1,95
727,00	-2,52
728,00	1,43
729,00	1,77
730,00	4,02
731,00	0,43
732,00	-1,64
733,00	-1,96
734,00	-1,00
735,00	4,53
736,00	-1,73
737,00	-2,81
738,00	0,83
739,00	0,82
740,00	1,39
741,00	-2,07
742,00	0,98
743,00	-3,41
744,00	-1,69
745,00	-4,39
746,00	0,51
747,00	-1,71
748,00	3,63
749,00	-1,78
750,00	0,52
751,00	1,16
752,00	0,25
753,00	-0,43
754,00	-4,29
755,00	0,25
756,00	-0,14
757,00	-0,50
758,00	3,53
759,00	-1,23
760,00	1,50
761,00	-0,67
762,00	1,16
763,00	-3,06
764,00	2,56
765,00	1,91
766,00	0,94
767,00	-2,61
768,00	0,45
769,00	-0,92
770,00	-1,79
771,00	0,42
772,00	-0,17
773,00	2,16
774,00	1,22
775,00	1,49
776,00	-0,72
777,00	-0,59
778,00	0,10
779,00	0,53
780,00	-1,14
781,00	2,53
782,00	-0,67
783,00	-1,40
784,00	-1,00
785,00	-1,49
786,00	-3,69
787,00	0,31
788,00	-1,98
789,00	1,81
790,00	3,72
791,00	1,33
792,00	-1,12
793,00	1,34
794,00	-5,46
795,00	-0,01
796,00	3,89
797,00	2,19
798,00	-0,83
799,00	4,92
800,00	-5,06
801,00	-1,90
802,00	-2,16
803,00	0,75
804,00	-2,03
805,00	4,05
806,00	-1,41
807,00	0,93
808,00	-1,64
809,00	2,55
810,00	1,15
811,00	1,56
812,00	-1,00
813,00	-1,36
814,00	1,49
815,00	-3,70
816,00	0,58
817,00	-2,73
818,00	1,71
819,00	-0,63
820,00	0,58
821,00	1,10
822,00	1,07
823,00	0,03
824,00	-5,03
825,00	2,31
826,00	-0,93
827,00	-1,23
828,00	2,13
829,00	0,52
830,00	-3,56
831,00	1,87
832,00	3,67
833,00	-2,91
834,00	-3,67
835,00	0,15
836,00	-0,77
837,00	-7,07
838,00	-4,03
839,00	0,75
840,00	-6,11
841,00	-4,55
842,00	-2,09
843,00	-4,27
844,00	-0,05
845,00	0,00
846,00	2,64
847,00	-0,47
848,00	-1,56
849,00	-2,08
850,00	1,81
851,00	-1,11
852,00	-3,90
853,00	-4,95
854,00	0,96
855,00	-0,24
856,00	-1,83
857,00	1,14
858,00	-1,01
859,00	-0,45
860,00	2,16
861,00	0,38
862,00	0,68
863,00	5,10
864,00	1,68
865,00	-2,78
866,00	-2,24
867,00	-1,05
868,00	-3,06
869,00	-0,86
870,00	1,49
871,00	-2,86
872,00	-0,73
873,00	0,06
874,00	-0,72
875,00	-1,79
876,00	1,28
877,00	-6,91
878,00	-2,83
879,00	0,94
880,00	1,18
881,00	-4,13
882,00	0,38
883,00	-1,27
884,00	1,27
885,00	-2,72
886,00	1,56
887,00	-3,83
888,00	1,01
889,00	0,75
890,00	-0,96
891,00	1,03
892,00	2,13
893,00	0,06
894,00	1,01
895,00	-0,73
896,00	0,58
897,00	0,86
898,00	-1,12
899,00	-0,51
900,00	2,55
901,00	0,56
902,00	-0,03
903,00	1,13
904,00	1,23
905,00	-3,10
906,00	-2,33
907,00	-1,49
908,00	0,74
909,00	-2,58
910,00	-1,29
911,00	-1,30
912,00	1,78
913,00	-2,10
914,00	0,45
915,00	2,50
916,00	2,78
917,00	2,72
918,00	-0,14
919,00	-1,66
920,00	2,68
921,00	0,02
922,00	-0,27
923,00	-1,14
924,00	0,10
925,00	-1,23
926,00	-2,56
927,00	1,07
928,00	-0,18
929,00	0,64
930,00	-3,42
931,00	-0,76
932,00	-1,73
933,00	-1,58
934,00	3,08
935,00	1,39
936,00	-1,24
937,00	-2,06
938,00	0,96
939,00	0,90
940,00	-0,24
941,00	0,70
942,00	-0,96
943,00	0,27
944,00	-0,92
945,00	-0,54
946,00	-0,80
947,00	-0,07
948,00	1,10
949,00	-3,76
950,00	-1,78
951,00	-3,42
952,00	1,87
953,00	-3,63
954,00	1,73
955,00	-2,90
956,00	-0,19
957,00	1,09
958,00	-1,01
959,00	-0,01
960,00	2,97
961,00	-0,29
962,00	-2,85
963,00	0,15
964,00	1,37
965,00	1,20
966,00	-2,12
967,00	-4,06
968,00	-0,79
969,00	-0,54
970,00	-3,52
971,00	2,32
972,00	-0,21
973,00	-0,08
974,00	0,96
975,00	-1,37
976,00	-0,20
977,00	1,41
978,00	-3,19
979,00	0,10
980,00	2,30
981,00	0,81
982,00	2,10
983,00	-1,34
984,00	2,73
985,00	-4,12
986,00	1,26
987,00	0,19
988,00	1,47
989,00	1,73
990,00	0,18
991,00	1,75
992,00	3,33
993,00	1,64
994,00	3,44
995,00	0,68
996,00	-0,72
997,00	-0,25
998,00	3,27
999,00	-0,01
1000,00	-2,55
>>>>>End Processed Spectral Data<<<<<
